PE IR       SUBTECH     SPECTRUM    ASCII       PEDS        4.00        
   -1
BH1 8-1 3 90_1.asc
24/05/15
17:27:10.00
24/05/15
17:27:28.00
Administrator
?品 136 用? Administrator 日期 Wednesday, May 15 2024
550.000000
#HDR
-1
-1
#GR
cm-1
%T
1.0
0.0
4000.000000
-1.000000
3451
8
100.100764
90.223145
#DATA
4000.000000	99.977229
3999.000000	99.979010
3998.000000	99.981642
3997.000000	99.984719
3996.000000	99.987122
3995.000000	99.988023
3994.000000	99.986973
3993.000000	99.983650
3992.000000	99.978219
3991.000000	99.971815
3990.000000	99.966133
3989.000000	99.962369
3988.000000	99.960776
3987.000000	99.961246
3986.000000	99.963968
3985.000000	99.969088
3984.000000	99.975719
3983.000000	99.981842
3982.000000	99.985677
3981.000000	99.987038
3980.000000	99.987139
3979.000000	99.987012
3978.000000	99.986375
3977.000000	99.984175
3976.000000	99.979867
3975.000000	99.973837
3974.000000	99.966885
3973.000000	99.959809
3972.000000	99.953588
3971.000000	99.949467
3970.000000	99.948476
3969.000000	99.950698
3968.000000	99.954974
3967.000000	99.959326
3966.000000	99.961831
3965.000000	99.961546
3964.000000	99.958981
3963.000000	99.955780
3962.000000	99.953609
3961.000000	99.953011
3960.000000	99.953204
3959.000000	99.952843
3958.000000	99.951100
3957.000000	99.948204
3956.000000	99.945277
3955.000000	99.943700
3954.000000	99.944332
3953.000000	99.947126
3952.000000	99.951180
3951.000000	99.955282
3950.000000	99.958692
3949.000000	99.961502
3948.000000	99.964145
3947.000000	99.966425
3946.000000	99.967255
3945.000000	99.965620
3944.000000	99.961891
3943.000000	99.957991
3942.000000	99.955966
3941.000000	99.956368
3940.000000	99.958005
3939.000000	99.958904
3938.000000	99.957690
3937.000000	99.954358
3936.000000	99.950030
3935.000000	99.946128
3934.000000	99.943569
3933.000000	99.942751
3932.000000	99.943956
3931.000000	99.947488
3930.000000	99.953155
3929.000000	99.959746
3928.000000	99.965410
3927.000000	99.968862
3926.000000	99.970280
3925.000000	99.970830
3924.000000	99.971357
3923.000000	99.972023
3922.000000	99.973086
3921.000000	99.975024
3920.000000	99.977685
3919.000000	99.979719
3918.000000	99.979532
3917.000000	99.976768
3916.000000	99.972576
3915.000000	99.968536
3914.000000	99.965655
3913.000000	99.964195
3912.000000	99.964044
3911.000000	99.964849
3910.000000	99.966217
3909.000000	99.967844
3908.000000	99.969637
3907.000000	99.971792
3906.000000	99.974645
3905.000000	99.978241
3904.000000	99.981684
3903.000000	99.983392
3902.000000	99.982486
3901.000000	99.979599
3900.000000	99.976290
3899.000000	99.973709
3898.000000	99.972093
3897.000000	99.971433
3896.000000	99.971910
3895.000000	99.973501
3894.000000	99.975676
3893.000000	99.977656
3892.000000	99.978986
3891.000000	99.979592
3890.000000	99.979411
3889.000000	99.978336
3888.000000	99.976549
3887.000000	99.974819
3886.000000	99.974042
3885.000000	99.974297
3884.000000	99.974781
3883.000000	99.974732
3882.000000	99.974179
3881.000000	99.973774
3880.000000	99.973988
3879.000000	99.974602
3878.000000	99.975057
3877.000000	99.975088
3876.000000	99.974943
3875.000000	99.975105
3874.000000	99.975671
3873.000000	99.976057
3872.000000	99.975623
3871.000000	99.974512
3870.000000	99.973686
3869.000000	99.973656
3868.000000	99.973962
3867.000000	99.973920
3866.000000	99.973406
3865.000000	99.972838
3864.000000	99.972586
3863.000000	99.972585
3862.000000	99.972624
3861.000000	99.972667
3860.000000	99.972933
3859.000000	99.973605
3858.000000	99.974579
3857.000000	99.975518
3856.000000	99.976177
3855.000000	99.976662
3854.000000	99.977367
3853.000000	99.978061
3852.000000	99.978147
3851.000000	99.977593
3850.000000	99.976709
3849.000000	99.975761
3848.000000	99.975011
3847.000000	99.974717
3846.000000	99.975058
3845.000000	99.975912
3844.000000	99.976815
3843.000000	99.977242
3842.000000	99.976959
3841.000000	99.976123
3840.000000	99.975276
3839.000000	99.975041
3838.000000	99.975744
3837.000000	99.977353
3836.000000	99.979569
3835.000000	99.981945
3834.000000	99.983941
3833.000000	99.984967
3832.000000	99.984540
3831.000000	99.982635
3830.000000	99.979967
3829.000000	99.977774
3828.000000	99.977055
3827.000000	99.977876
3826.000000	99.979225
3825.000000	99.979691
3824.000000	99.978621
3823.000000	99.976598
3822.000000	99.975139
3821.000000	99.975150
3820.000000	99.975843
3819.000000	99.976088
3818.000000	99.975901
3817.000000	99.976065
3816.000000	99.976646
3815.000000	99.976584
3814.000000	99.975207
3813.000000	99.973143
3812.000000	99.971489
3811.000000	99.970625
3810.000000	99.970077
3809.000000	99.969414
3808.000000	99.969050
3807.000000	99.969594
3806.000000	99.970604
3805.000000	99.970743
3804.000000	99.969257
3803.000000	99.966808
3802.000000	99.964887
3801.000000	99.963739
3800.000000	99.962091
3799.000000	99.959230
3798.000000	99.955912
3797.000000	99.953619
3796.000000	99.953114
3795.000000	99.953916
3794.000000	99.955124
3793.000000	99.956264
3792.000000	99.957259
3791.000000	99.958086
3790.000000	99.958675
3789.000000	99.958919
3788.000000	99.958695
3787.000000	99.958177
3786.000000	99.958162
3785.000000	99.959652
3784.000000	99.962810
3783.000000	99.966547
3782.000000	99.969234
3781.000000	99.969773
3780.000000	99.968391
3779.000000	99.966460
3778.000000	99.965536
3777.000000	99.966296
3776.000000	99.968309
3775.000000	99.970423
3774.000000	99.971533
3773.000000	99.971377
3772.000000	99.970805
3771.000000	99.970969
3770.000000	99.971782
3769.000000	99.971694
3768.000000	99.969632
3767.000000	99.966554
3766.000000	99.964682
3765.000000	99.965247
3764.000000	99.967230
3763.000000	99.968446
3762.000000	99.967633
3761.000000	99.965332
3760.000000	99.963453
3759.000000	99.963776
3758.000000	99.966734
3757.000000	99.971277
3756.000000	99.975868
3755.000000	99.979843
3754.000000	99.983522
3753.000000	99.986803
3752.000000	99.988027
3751.000000	99.985688
3750.000000	99.981155
3749.000000	99.977335
3748.000000	99.974787
3747.000000	99.972336
3746.000000	99.970205
3745.000000	99.970163
3744.000000	99.971981
3743.000000	99.973523
3742.000000	99.974101
3741.000000	99.974556
3740.000000	99.975533
3739.000000	99.976313
3738.000000	99.975354
3737.000000	99.971962
3736.000000	99.966832
3735.000000	99.961305
3734.000000	99.956723
3733.000000	99.954422
3732.000000	99.954869
3731.000000	99.956894
3730.000000	99.958600
3729.000000	99.959056
3728.000000	99.958758
3727.000000	99.958458
3726.000000	99.957598
3725.000000	99.954705
3724.000000	99.949325
3723.000000	99.942827
3722.000000	99.937181
3721.000000	99.933198
3720.000000	99.930482
3719.000000	99.928682
3718.000000	99.928456
3717.000000	99.930783
3716.000000	99.935373
3715.000000	99.940368
3714.000000	99.943290
3713.000000	99.942558
3712.000000	99.938936
3711.000000	99.934793
3710.000000	99.931564
3709.000000	99.928798
3708.000000	99.925762
3707.000000	99.922561
3706.000000	99.919326
3705.000000	99.915325
3704.000000	99.909512
3703.000000	99.902130
3702.000000	99.895495
3701.000000	99.892097
3700.000000	99.892176
3699.000000	99.893894
3698.000000	99.895217
3697.000000	99.895290
3696.000000	99.894342
3695.000000	99.893172
3694.000000	99.892627
3693.000000	99.892703
3692.000000	99.892316
3691.000000	99.890651
3690.000000	99.888913
3689.000000	99.889076
3688.000000	99.890990
3687.000000	99.892228
3686.000000	99.890531
3685.000000	99.885827
3684.000000	99.879766
3683.000000	99.873572
3682.000000	99.867140
3681.000000	99.860437
3680.000000	99.854370
3679.000000	99.850219
3678.000000	99.849158
3677.000000	99.852305
3676.000000	99.858719
3675.000000	99.862705
3674.000000	99.859191
3673.000000	99.849136
3672.000000	99.837827
3671.000000	99.830045
3670.000000	99.825312
3669.000000	99.818393
3668.000000	99.806779
3667.000000	99.793495
3666.000000	99.782531
3665.000000	99.775074
3664.000000	99.769727
3663.000000	99.764915
3662.000000	99.760485
3661.000000	99.756735
3660.000000	99.752527
3659.000000	99.746013
3658.000000	99.737237
3657.000000	99.729532
3656.000000	99.726236
3655.000000	99.726596
3654.000000	99.726863
3653.000000	99.724350
3652.000000	99.719733
3651.000000	99.715899
3650.000000	99.714186
3649.000000	99.711912
3648.000000	99.706526
3647.000000	99.699163
3646.000000	99.691357
3645.000000	99.682653
3644.000000	99.672434
3643.000000	99.661572
3642.000000	99.651433
3641.000000	99.641824
3640.000000	99.631440
3639.000000	99.620601
3638.000000	99.611518
3637.000000	99.605557
3636.000000	99.601612
3635.000000	99.597862
3634.000000	99.593765
3633.000000	99.589493
3632.000000	99.585114
3631.000000	99.581723
3630.000000	99.582179
3629.000000	99.587099
3628.000000	99.590540
3627.000000	99.587182
3626.000000	99.579069
3625.000000	99.571929
3624.000000	99.569736
3623.000000	99.572461
3622.000000	99.577775
3621.000000	99.584664
3620.000000	99.594668
3619.000000	99.608439
3618.000000	99.622623
3617.000000	99.632186
3616.000000	99.634448
3615.000000	99.630583
3614.000000	99.624411
3613.000000	99.619481
3612.000000	99.617042
3611.000000	99.616929
3610.000000	99.618927
3609.000000	99.622642
3608.000000	99.626831
3607.000000	99.629872
3606.000000	99.631243
3605.000000	99.631679
3604.000000	99.632230
3603.000000	99.633902
3602.000000	99.637609
3601.000000	99.643507
3600.000000	99.650150
3599.000000	99.655583
3598.000000	99.659331
3597.000000	99.662694
3596.000000	99.666833
3595.000000	99.671378
3594.000000	99.674723
3593.000000	99.675599
3592.000000	99.674132
3591.000000	99.671741
3590.000000	99.670675
3589.000000	99.673189
3588.000000	99.679187
3587.000000	99.684426
3586.000000	99.684166
3585.000000	99.678205
3584.000000	99.670206
3583.000000	99.663831
3582.000000	99.660063
3581.000000	99.657740
3580.000000	99.655394
3579.000000	99.652461
3578.000000	99.649155
3577.000000	99.645960
3576.000000	99.643612
3575.000000	99.643005
3574.000000	99.644418
3573.000000	99.646555
3572.000000	99.647198
3571.000000	99.645306
3570.000000	99.642408
3569.000000	99.641480
3568.000000	99.643638
3567.000000	99.646092
3566.000000	99.645264
3565.000000	99.641408
3564.000000	99.637439
3563.000000	99.634819
3562.000000	99.632733
3561.000000	99.630345
3560.000000	99.628359
3559.000000	99.627947
3558.000000	99.629074
3557.000000	99.630568
3556.000000	99.631559
3555.000000	99.632322
3554.000000	99.633889
3553.000000	99.636873
3552.000000	99.640433
3551.000000	99.642628
3550.000000	99.642182
3549.000000	99.639800
3548.000000	99.637709
3547.000000	99.637616
3546.000000	99.638973
3545.000000	99.639565
3544.000000	99.637755
3543.000000	99.633744
3542.000000	99.629127
3541.000000	99.625545
3540.000000	99.623556
3539.000000	99.622243
3538.000000	99.620004
3537.000000	99.616263
3536.000000	99.612286
3535.000000	99.609797
3534.000000	99.608835
3533.000000	99.607768
3532.000000	99.605563
3531.000000	99.603467
3530.000000	99.603868
3529.000000	99.607706
3528.000000	99.613590
3527.000000	99.619460
3526.000000	99.624471
3525.000000	99.628647
3524.000000	99.631490
3523.000000	99.632035
3522.000000	99.630363
3521.000000	99.628141
3520.000000	99.627121
3519.000000	99.627569
3518.000000	99.628365
3517.000000	99.628364
3516.000000	99.627132
3515.000000	99.624537
3514.000000	99.620237
3513.000000	99.614112
3512.000000	99.607127
3511.000000	99.601375
3510.000000	99.598808
3509.000000	99.599782
3508.000000	99.602824
3507.000000	99.605867
3506.000000	99.607884
3505.000000	99.609358
3504.000000	99.611195
3503.000000	99.613346
3502.000000	99.614773
3501.000000	99.614760
3500.000000	99.613816
3499.000000	99.613148
3498.000000	99.613484
3497.000000	99.614434
3496.000000	99.614970
3495.000000	99.614609
3494.000000	99.614127
3493.000000	99.614882
3492.000000	99.617268
3491.000000	99.620029
3490.000000	99.621363
3489.000000	99.620741
3488.000000	99.619218
3487.000000	99.618048
3486.000000	99.617468
3485.000000	99.617120
3484.000000	99.617053
3483.000000	99.617616
3482.000000	99.618521
3481.000000	99.618777
3480.000000	99.617784
3479.000000	99.615999
3478.000000	99.614341
3477.000000	99.613287
3476.000000	99.612754
3475.000000	99.612575
3474.000000	99.612738
3473.000000	99.613176
3472.000000	99.613502
3471.000000	99.613120
3470.000000	99.611728
3469.000000	99.609735
3468.000000	99.608098
3467.000000	99.607513
3466.000000	99.607702
3465.000000	99.607712
3464.000000	99.606864
3463.000000	99.605340
3462.000000	99.603841
3461.000000	99.602783
3460.000000	99.601914
3459.000000	99.600686
3458.000000	99.598894
3457.000000	99.596963
3456.000000	99.595545
3455.000000	99.594826
3454.000000	99.594297
3453.000000	99.593266
3452.000000	99.591495
3451.000000	99.589245
3450.000000	99.586922
3449.000000	99.584902
3448.000000	99.583567
3447.000000	99.583080
3446.000000	99.583011
3445.000000	99.582524
3444.000000	99.581220
3443.000000	99.579570
3442.000000	99.578396
3441.000000	99.578027
3440.000000	99.578128
3439.000000	99.578209
3438.000000	99.578068
3437.000000	99.577757
3436.000000	99.577314
3435.000000	99.576640
3434.000000	99.575591
3433.000000	99.574135
3432.000000	99.572428
3431.000000	99.570784
3430.000000	99.569535
3429.000000	99.568857
3428.000000	99.568680
3427.000000	99.568689
3426.000000	99.568439
3425.000000	99.567641
3424.000000	99.566366
3423.000000	99.565041
3422.000000	99.564107
3421.000000	99.563639
3420.000000	99.563393
3419.000000	99.563164
3418.000000	99.562982
3417.000000	99.562899
3416.000000	99.562798
3415.000000	99.562492
3414.000000	99.561954
3413.000000	99.561356
3412.000000	99.560922
3411.000000	99.560778
3410.000000	99.560921
3409.000000	99.561223
3408.000000	99.561475
3407.000000	99.561505
3406.000000	99.561308
3405.000000	99.561036
3404.000000	99.560846
3403.000000	99.560744
3402.000000	99.560590
3401.000000	99.560263
3400.000000	99.559801
3399.000000	99.559390
3398.000000	99.559239
3397.000000	99.559392
3396.000000	99.559606
3395.000000	99.559520
3394.000000	99.559025
3393.000000	99.558462
3392.000000	99.558368
3391.000000	99.558970
3390.000000	99.559970
3389.000000	99.560803
3388.000000	99.561151
3387.000000	99.561162
3386.000000	99.561185
3385.000000	99.561272
3384.000000	99.560999
3383.000000	99.559913
3382.000000	99.558193
3381.000000	99.556754
3380.000000	99.556520
3379.000000	99.557728
3378.000000	99.559867
3377.000000	99.562133
3376.000000	99.563944
3375.000000	99.565094
3374.000000	99.565599
3373.000000	99.565507
3372.000000	99.564772
3371.000000	99.563319
3370.000000	99.561271
3369.000000	99.559101
3368.000000	99.557402
3367.000000	99.556429
3366.000000	99.555965
3365.000000	99.555713
3364.000000	99.555709
3363.000000	99.556199
3362.000000	99.557266
3361.000000	99.558775
3360.000000	99.560574
3359.000000	99.562443
3358.000000	99.563922
3357.000000	99.564557
3356.000000	99.564505
3355.000000	99.564654
3354.000000	99.565769
3353.000000	99.567589
3352.000000	99.568954
3351.000000	99.568906
3350.000000	99.567491
3349.000000	99.565644
3348.000000	99.564487
3347.000000	99.564574
3346.000000	99.565679
3345.000000	99.567083
3344.000000	99.568175
3343.000000	99.568934
3342.000000	99.569740
3341.000000	99.570720
3340.000000	99.571435
3339.000000	99.571340
3338.000000	99.570366
3337.000000	99.568986
3336.000000	99.567841
3335.000000	99.567359
3334.000000	99.567629
3333.000000	99.568441
3332.000000	99.569403
3331.000000	99.570212
3330.000000	99.570835
3329.000000	99.571400
3328.000000	99.571996
3327.000000	99.572645
3326.000000	99.573397
3325.000000	99.574300
3324.000000	99.575306
3323.000000	99.576271
3322.000000	99.577044
3321.000000	99.577505
3320.000000	99.577596
3319.000000	99.577428
3318.000000	99.577340
3317.000000	99.577665
3316.000000	99.578396
3315.000000	99.579128
3314.000000	99.579442
3313.000000	99.579311
3312.000000	99.579102
3311.000000	99.579223
3310.000000	99.579785
3309.000000	99.580653
3308.000000	99.581614
3307.000000	99.582494
3306.000000	99.583201
3305.000000	99.583746
3304.000000	99.584232
3303.000000	99.584759
3302.000000	99.585356
3301.000000	99.586011
3300.000000	99.586718
3299.000000	99.587440
3298.000000	99.588081
3297.000000	99.588527
3296.000000	99.588748
3295.000000	99.588840
3294.000000	99.588987
3293.000000	99.589361
3292.000000	99.590012
3291.000000	99.590843
3290.000000	99.591690
3289.000000	99.592438
3288.000000	99.593056
3287.000000	99.593582
3286.000000	99.594104
3285.000000	99.594721
3284.000000	99.595465
3283.000000	99.596257
3282.000000	99.596976
3281.000000	99.597578
3280.000000	99.598112
3279.000000	99.598633
3278.000000	99.599135
3277.000000	99.599587
3276.000000	99.599994
3275.000000	99.600384
3274.000000	99.600788
3273.000000	99.601249
3272.000000	99.601823
3271.000000	99.602546
3270.000000	99.603370
3269.000000	99.604179
3268.000000	99.604896
3267.000000	99.605544
3266.000000	99.606200
3265.000000	99.606879
3264.000000	99.607491
3263.000000	99.607950
3262.000000	99.608281
3261.000000	99.608641
3260.000000	99.609174
3259.000000	99.609886
3258.000000	99.610594
3257.000000	99.611078
3256.000000	99.611290
3255.000000	99.611440
3254.000000	99.611810
3253.000000	99.612462
3252.000000	99.613222
3251.000000	99.613960
3250.000000	99.614742
3249.000000	99.615607
3248.000000	99.616369
3247.000000	99.616795
3246.000000	99.616950
3245.000000	99.617263
3244.000000	99.618090
3243.000000	99.619306
3242.000000	99.620422
3241.000000	99.621120
3240.000000	99.621516
3239.000000	99.621932
3238.000000	99.622591
3237.000000	99.623585
3236.000000	99.624989
3235.000000	99.626823
3234.000000	99.628910
3233.000000	99.630902
3232.000000	99.632470
3231.000000	99.633419
3230.000000	99.633649
3229.000000	99.633195
3228.000000	99.632384
3227.000000	99.631833
3226.000000	99.632071
3225.000000	99.633067
3224.000000	99.634078
3223.000000	99.634116
3222.000000	99.632785
3221.000000	99.630793
3220.000000	99.629538
3219.000000	99.629915
3218.000000	99.631587
3217.000000	99.633382
3216.000000	99.634378
3215.000000	99.634553
3214.000000	99.634446
3213.000000	99.634559
3212.000000	99.635233
3211.000000	99.636779
3210.000000	99.639345
3209.000000	99.642659
3208.000000	99.646083
3207.000000	99.649035
3206.000000	99.651254
3205.000000	99.652577
3204.000000	99.652705
3203.000000	99.651506
3202.000000	99.649574
3201.000000	99.648127
3200.000000	99.647974
3199.000000	99.648777
3198.000000	99.649586
3197.000000	99.649945
3196.000000	99.650203
3195.000000	99.650793
3194.000000	99.651630
3193.000000	99.652368
3192.000000	99.652917
3191.000000	99.653513
3190.000000	99.654427
3189.000000	99.655759
3188.000000	99.657324
3187.000000	99.658639
3186.000000	99.659240
3185.000000	99.659169
3184.000000	99.659090
3183.000000	99.659675
3182.000000	99.660913
3181.000000	99.662266
3180.000000	99.663368
3179.000000	99.664360
3178.000000	99.665450
3177.000000	99.666522
3176.000000	99.667339
3175.000000	99.667933
3174.000000	99.668612
3173.000000	99.669623
3172.000000	99.670903
3171.000000	99.672147
3170.000000	99.673102
3169.000000	99.673779
3168.000000	99.674474
3167.000000	99.675532
3166.000000	99.677038
3165.000000	99.678712
3164.000000	99.680127
3163.000000	99.681056
3162.000000	99.681553
3161.000000	99.681829
3160.000000	99.682129
3159.000000	99.682632
3158.000000	99.683337
3157.000000	99.684102
3156.000000	99.684858
3155.000000	99.685746
3154.000000	99.686906
3153.000000	99.688172
3152.000000	99.689170
3151.000000	99.689740
3150.000000	99.690077
3149.000000	99.690423
3148.000000	99.690806
3147.000000	99.691214
3146.000000	99.691839
3145.000000	99.692887
3144.000000	99.694227
3143.000000	99.695470
3142.000000	99.696433
3141.000000	99.697320
3140.000000	99.698392
3139.000000	99.699712
3138.000000	99.701342
3137.000000	99.703490
3136.000000	99.706165
3135.000000	99.708744
3134.000000	99.710290
3133.000000	99.710473
3132.000000	99.709954
3131.000000	99.709804
3130.000000	99.710509
3129.000000	99.711740
3128.000000	99.712884
3127.000000	99.713537
3126.000000	99.713599
3125.000000	99.713172
3124.000000	99.712547
3123.000000	99.712174
3122.000000	99.712470
3121.000000	99.713600
3120.000000	99.715376
3119.000000	99.717283
3118.000000	99.718729
3117.000000	99.719448
3116.000000	99.719688
3115.000000	99.720010
3114.000000	99.720797
3113.000000	99.722000
3112.000000	99.723303
3111.000000	99.724466
3110.000000	99.725496
3109.000000	99.726547
3108.000000	99.727714
3107.000000	99.728905
3106.000000	99.729907
